# Output of JWST_backgrounds version 1.1.1
# background cache version 1.0

# for RA=53.1496, DEC=-27.78895 On calendar day 355
# Columns: 
# - Wavelength [micron] 
# - Total background (MJy/sr)
# - In-field zodiacal light (MJy/sr)
# - In-field galactic light (MJy/sr)
# - Stray light (MJy/sr)
# - Thermal self-emission (MJy/sr)
0.500000    0.1636    0.1417    0.0015    0.0204    0.0000
0.600000    0.2227    0.1872    0.0021    0.0333    0.0000
0.700000    0.2489    0.2102    0.0027    0.0360    0.0000
0.800000    0.2583    0.2170    0.0033    0.0380    0.0000
0.900000    0.2556    0.2131    0.0038    0.0387    0.0000
1.000000    0.2566    0.2030    0.0043    0.0493    0.0000
1.100000    0.2415    0.1896    0.0048    0.0471    0.0000
1.200000    0.2249    0.1749    0.0052    0.0448    0.0000
1.300000    0.2119    0.1633    0.0056    0.0429    0.0000
1.400000    0.2026    0.1551    0.0060    0.0415    0.0000
1.500000    0.1933    0.1469    0.0063    0.0401    0.0000
1.600000    0.1843    0.1390    0.0066    0.0387    0.0000
1.700000    0.1756    0.1314    0.0068    0.0374    0.0000
1.800000    0.1627    0.1242    0.0070    0.0315    0.0000
1.900000    0.1550    0.1174    0.0072    0.0304    0.0000
2.000000    0.1478    0.1111    0.0074    0.0293    0.0000
2.100000    0.1414    0.1053    0.0075    0.0287    0.0000
2.200000    0.1355    0.0998    0.0075    0.0282    0.0000
2.300000    0.1287    0.0935    0.0076    0.0276    0.0000
2.400000    0.1224    0.0876    0.0077    0.0271    0.0000
2.500000    0.1166    0.0823    0.0077    0.0266    0.0000
2.600000    0.1112    0.0773    0.0077    0.0261    0.0000
2.700000    0.1062    0.0728    0.0077    0.0257    0.0000
2.800000    0.1016    0.0685    0.0077    0.0253    0.0000
2.900000    0.0904    0.0646    0.0077    0.0181    0.0000
3.000000    0.0865    0.0610    0.0077    0.0177    0.0000
3.100000    0.0826    0.0577    0.0077    0.0172    0.0000
3.200000    0.0794    0.0546    0.0079    0.0169    0.0000
3.300000    0.0777    0.0517    0.0088    0.0172    0.0000
3.400000    0.0725    0.0490    0.0076    0.0159    0.0000
3.500000    0.0865    0.0618    0.0075    0.0173    0.0000
3.700000    0.0965    0.0710    0.0074    0.0181    0.0000
4.000000    0.1288    0.1004    0.0074    0.0209    0.0000
4.250000    0.1729    0.1438    0.0073    0.0218    0.0000
4.500000    0.2434    0.2081    0.0073    0.0281    0.0000
4.750000    0.3391    0.2955    0.0073    0.0364    0.0000
5.000000    0.4604    0.4064    0.0074    0.0466    0.0000
5.100000    0.5277    0.4675    0.0074    0.0527    0.0001
5.200000    0.6023    0.5352    0.0075    0.0595    0.0001
5.300000    0.6860    0.6098    0.0085    0.0676    0.0001
5.400000    0.7747    0.6914    0.0078    0.0754    0.0002
5.500000    0.8732    0.7802    0.0082    0.0845    0.0002
5.700000    1.0975    0.9799    0.0110    0.1062    0.0004
5.900000    1.3508    1.2097    0.0111    0.1293    0.0007
6.100000    1.6470    1.4696    0.0185    0.1577    0.0011
6.300000    1.9919    1.7594    0.0343    0.1965    0.0017
6.500000    2.3203    2.0780    0.0195    0.2201    0.0027
6.700000    2.7009    2.4243    0.0180    0.2546    0.0040
6.900000    3.1164    2.7965    0.0201    0.2940    0.0058
7.100000    3.5586    3.1927    0.0217    0.3359    0.0083
7.300000    4.0339    3.6106    0.0283    0.3833    0.0117
7.500000    4.5451    4.0479    0.0429    0.4382    0.0162
7.700000    5.0680    4.5019    0.0522    0.4918    0.0221
7.900000    5.5803    4.9702    0.0440    0.5361    0.0299
8.100000    6.1034    5.4502    0.0331    0.5800    0.0401
8.300000    6.6535    5.9392    0.0306    0.6307    0.0531
8.500000    7.2235    6.4346    0.0333    0.6859    0.0697
8.700000    7.7957    6.9342    0.0317    0.7391    0.0907
8.900000    8.3630    7.4355    0.0226    0.7877    0.1172
9.100000    8.9480    7.9363    0.0203    0.8413    0.1502
9.300000    9.5410    8.4345    0.0193    0.8960    0.1912
9.500000    10.1401    8.9283    0.0191    0.9512    0.2415
9.700000    10.7445    9.4159    0.0202    1.0053    0.3031
9.900000    11.3553    9.8956    0.0210    1.0607    0.3780
10.100000    11.9666    10.3660    0.0206    1.1118    0.4682
10.300000    12.5816    10.8258    0.0203    1.1591    0.5764
10.500000    13.2082    11.2738    0.0222    1.2068    0.7053
10.700000    13.8437    11.7091    0.0237    1.2529    0.8580
10.900000    14.4937    12.1308    0.0266    1.2984    1.0380
11.100000    15.1720    12.5381    0.0376    1.3483    1.2480
11.300000    15.8774    12.9304    0.0537    1.4003    1.4930
11.500000    16.5660    13.3073    0.0473    1.4344    1.7770
11.700000    17.2665    13.6682    0.0337    1.4616    2.1030
11.900000    18.0196    14.0130    0.0324    1.4961    2.4780
12.100000    18.8686    14.3939    0.0337    1.5350    2.9060
12.300000    19.8232    14.8152    0.0353    1.5797    3.3930
12.500000    20.8289    15.2254    0.0366    1.6229    3.9440
12.700000    21.8926    15.6242    0.0376    1.6648    4.5660
12.900000    23.0138    16.0115    0.0353    1.7030    5.2640
13.100000    24.2036    16.3872    0.0309    1.7385    6.0470
13.300000    25.4745    16.7511    0.0289    1.7745    6.9200
13.500000    26.8351    17.1031    0.0291    1.8109    7.8920
13.700000    28.2880    17.4432    0.0284    1.8454    8.9710
13.900000    29.8466    17.7715    0.0269    1.8781    10.1700
14.100000    31.5162    18.0880    0.0273    1.9109    11.4900
14.300000    33.3015    18.3928    0.0268    1.9419    12.9400
14.500000    35.2238    18.6859    0.0262    1.9716    14.5400
14.700000    37.2827    18.9675    0.0253    1.9999    16.2900
14.900000    39.5003    19.2378    0.0250    2.0275    18.2100
15.100000    41.8859    19.4969    0.0249    2.0541    20.3100
15.300000    44.4487    19.7449    0.0245    2.0793    22.6000
15.500000    47.2135    19.9821    0.0264    2.1050    25.1000
16.500000    64.4530    21.0131    0.0279    2.2119    41.2000
17.500000    89.1706    21.8066    0.0295    2.2944    65.0400
18.500000    124.2587    22.3922    0.0309    2.3555    99.4800
19.500000    173.4298    22.7991    0.0325    2.3982    148.2000
20.500000    241.4137    23.0543    0.0342    2.4253    215.9000
21.500000    333.7572    23.1820    0.0359    2.4392    308.1000
22.500000    457.0838    23.2039    0.0377    2.4422    431.4000
23.500000    618.9142    23.1385    0.0395    2.4362    593.3000
24.500000    827.6660    23.0018    0.0414    2.4228    802.2000
25.500000    1092.0331    22.6070    0.0435    2.3826    1067.0000
26.500000    1422.3410    21.9770    0.0460    2.3180    1398.0000
27.500000    1829.6268    21.3270    0.0485    2.2514    1806.0000
28.500000    2321.9008    20.6660    0.0512    2.1835    2299.0000
29.500000    2912.1707    20.0013    0.0541    2.1153    2890.0000
30.500000    3608.4430    19.3387    0.0570    2.0473    3587.0000
31.000000    3919.0815    19.0095    0.0584    2.0136    3898.0000
